! Boundary layer characteristics at the trailing edge for the airfoil coordinates of C:/Material/Projects/Aeroacoustics/verifyAA/OpenFAST_IEA_LB_RWT/Airfoils/AF11_Coords.txt
! Legend: aoa - angle of attack (deg), Re - Reynolds number (-, millions), PS - pressure side, SS - suction side,  Ue_Vinf - edge velocity (-), Dstar - displacement thickness (-), Theta - momentum thickness (-) Cf  - friction coefficient (-)
4 	 ReListBL   -  Number of Reynolds numbers (it corresponds to the number of tables)
30 	 aoaListBL  -  Number of angles of attack (it corresponds to the number of rows in each table)
0.50 	   -  Re
aoa 	 	 Ue_Vinf_SS 	 Ue_Vinf_PS 	  Dstar_SS 	 	  Dstar_PS 	 	  Theta_SS 	 	  Theta_PS 	 	    Cf_SS 	 	    Cf_PS
(deg) 	 	 	 (-) 	 	 	 (-) 	 	 	 (-) 	 	 	 (-) 	 	 	 (-) 	 	 	 (-) 	 	 	 (-) 	 	 	 (-)
-5.00000 	 8.82450e-01 	 8.65160e-01 	 5.30100e-03 	 5.88100e-03 	 3.34100e-03 	 3.60700e-03 	 2.15700e-03 	 1.89100e-03 
-3.96552 	 8.75260e-01 	 8.57840e-01 	 6.11000e-03 	 6.81700e-03 	 3.71800e-03 	 4.01800e-03 	 1.87000e-03 	 1.61300e-03 
-2.93103 	 8.76740e-01 	 8.60250e-01 	 6.91100e-03 	 7.69200e-03 	 4.07200e-03 	 4.38400e-03 	 1.66500e-03 	 1.43000e-03 
-1.89655 	 8.78110e-01 	 8.62410e-01 	 7.82500e-03 	 8.70000e-03 	 4.45400e-03 	 4.78100e-03 	 1.46700e-03 	 1.25100e-03 
-0.86207 	 8.81780e-01 	 8.67140e-01 	 8.78300e-03 	 9.72900e-03 	 4.84000e-03 	 5.17300e-03 	 1.30600e-03 	 1.11000e-03 
0.17241 	 8.86700e-01 	 8.73190e-01 	 9.84800e-03 	 1.08600e-02 	 5.25100e-03 	 5.58600e-03 	 1.15900e-03 	 9.84000e-04 
1.20690 	 8.90210e-01 	 8.77770e-01 	 1.11580e-02 	 1.22710e-02 	 5.71200e-03 	 6.05000e-03 	 9.94000e-04 	 8.38000e-04 
2.24138 	 8.93270e-01 	 8.81960e-01 	 1.27060e-02 	 1.39440e-02 	 6.20400e-03 	 6.54200e-03 	 8.28000e-04 	 6.89000e-04 
3.27586 	 8.97570e-01 	 8.87540e-01 	 1.45020e-02 	 1.58700e-02 	 6.70800e-03 	 7.03800e-03 	 6.67000e-04 	 5.47000e-04 
4.31034 	 9.02860e-01 	 8.94300e-01 	 1.66560e-02 	 1.81680e-02 	 7.21600e-03 	 7.52600e-03 	 5.08000e-04 	 4.07000e-04 
5.34483 	 9.08080e-01 	 9.01430e-01 	 1.96290e-02 	 2.13390e-02 	 7.75500e-03 	 8.02300e-03 	 3.31000e-04 	 2.51000e-04 
6.37931 	 9.16210e-01 	 9.12170e-01 	 2.39000e-02 	 2.58550e-02 	 8.24000e-03 	 8.42400e-03 	 1.47000e-04 	 8.60000e-05 
7.41379 	 9.34340e-01 	 9.32720e-01 	 3.09750e-02 	 3.32610e-02 	 8.24700e-03 	 8.33100e-03 	 3.00000e-06 	 -4.00000e-06 
8.44828 	 9.56750e-01 	 9.54530e-01 	 3.95880e-02 	 4.20430e-02 	 8.31200e-03 	 8.44600e-03 	 -1.50000e-05 	 -1.50000e-05 
9.48276 	 9.77020e-01 	 9.74660e-01 	 5.03900e-02 	 5.30300e-02 	 8.58000e-03 	 8.74700e-03 	 -1.60000e-05 	 -1.50000e-05 
10.51724 	 9.96910e-01 	 9.94550e-01 	 6.35110e-02 	 6.63560e-02 	 9.02600e-03 	 9.22300e-03 	 -1.40000e-05 	 -1.40000e-05 
11.55172 	 1.01197e+00 	 1.00966e+00 	 7.52400e-02 	 7.82680e-02 	 9.44400e-03 	 9.66300e-03 	 -1.30000e-05 	 -1.30000e-05 
12.58621 	 1.02764e+00 	 1.02547e+00 	 9.03370e-02 	 9.36040e-02 	 1.00120e-02 	 1.02490e-02 	 -1.30000e-05 	 -1.20000e-05 
13.62069 	 1.03952e+00 	 1.03749e+00 	 1.03795e-01 	 1.07288e-01 	 1.05120e-02 	 1.07600e-02 	 -1.20000e-05 	 -1.20000e-05 
14.65517 	 1.05135e+00 	 1.04942e+00 	 1.18330e-01 	 1.22043e-01 	 1.10440e-02 	 1.13070e-02 	 -1.10000e-05 	 -1.10000e-05 
15.68966 	 1.06332e+00 	 1.06148e+00 	 1.35187e-01 	 1.39142e-01 	 1.16460e-02 	 1.19250e-02 	 -1.10000e-05 	 -1.00000e-05 
16.72414 	 1.07060e+00 	 1.06891e+00 	 1.48757e-01 	 1.52944e-01 	 1.21190e-02 	 1.23960e-02 	 -1.00000e-05 	 -1.00000e-05 
17.75862 	 1.08335e+00 	 1.08171e+00 	 1.69751e-01 	 1.74192e-01 	 1.28840e-02 	 1.31830e-02 	 -1.00000e-05 	 -1.00000e-05 
18.79310 	 1.09491e+00 	 1.09334e+00 	 1.91617e-01 	 1.96319e-01 	 1.36670e-02 	 1.39840e-02 	 -9.00000e-06 	 -9.00000e-06 
19.82759 	 1.10562e+00 	 1.10415e+00 	 2.13874e-01 	 2.18837e-01 	 1.44430e-02 	 1.47700e-02 	 -9.00000e-06 	 -9.00000e-06 
20.86207 	 1.12024e+00 	 1.11883e+00 	 2.42790e-01 	 2.48030e-01 	 1.56000e-02 	 1.59470e-02 	 -8.00000e-06 	 -8.00000e-06 
21.89655 	 1.13642e+00 	 1.13510e+00 	 2.74255e-01 	 2.79769e-01 	 1.68870e-02 	 1.72480e-02 	 -8.00000e-06 	 -8.00000e-06 
22.93103 	 1.15508e+00 	 1.15384e+00 	 3.07704e-01 	 3.13469e-01 	 1.82910e-02 	 1.86640e-02 	 -7.00000e-06 	 -7.00000e-06 
23.96552 	 1.17134e+00 	 1.17016e+00 	 3.35632e-01 	 3.41599e-01 	 1.91900e-02 	 1.95690e-02 	 -7.00000e-06 	 -7.00000e-06 
25.00000 	 1.19162e+00 	 1.19051e+00 	 3.67726e-01 	 3.73889e-01 	 2.02320e-02 	 2.06150e-02 	 -7.00000e-06 	 -7.00000e-06 
1.00 	   -  Re
aoa 	 	 Ue_Vinf_SS 	 Ue_Vinf_PS 	  Dstar_SS 	 	  Dstar_PS 	 	  Theta_SS 	 	  Theta_PS 	 	    Cf_SS 	 	    Cf_PS
(deg) 	 	 	 (-) 	 	 	 (-) 	 	 	 (-) 	 	 	 (-) 	 	 	 (-) 	 	 	 (-) 	 	 	 (-) 	 	 	 (-)
-5.00000 	 8.72000e-01 	 8.53820e-01 	 4.47700e-03 	 5.00600e-03 	 2.76900e-03 	 3.00500e-03 	 1.72800e-03 	 1.49600e-03 
-3.96552 	 8.77290e-01 	 8.60000e-01 	 4.93800e-03 	 5.49300e-03 	 3.00700e-03 	 3.24800e-03 	 1.63200e-03 	 1.41900e-03 
-2.93103 	 8.80870e-01 	 8.64340e-01 	 5.57300e-03 	 6.18000e-03 	 3.32000e-03 	 3.57400e-03 	 1.50100e-03 	 1.30400e-03 
-1.89655 	 8.85070e-01 	 8.69260e-01 	 6.23100e-03 	 6.88900e-03 	 3.63500e-03 	 3.90000e-03 	 1.38800e-03 	 1.20400e-03 
-0.86207 	 8.88950e-01 	 8.73770e-01 	 6.91700e-03 	 7.63300e-03 	 3.94800e-03 	 4.22400e-03 	 1.27900e-03 	 1.10800e-03 
0.17241 	 8.92530e-01 	 8.78020e-01 	 7.72800e-03 	 8.51400e-03 	 4.29800e-03 	 4.58600e-03 	 1.16100e-03 	 1.00100e-03 
1.20690 	 8.95780e-01 	 8.81980e-01 	 8.65700e-03 	 9.52300e-03 	 4.67300e-03 	 4.97200e-03 	 1.03900e-03 	 8.90000e-04 
2.24138 	 8.98800e-01 	 8.85790e-01 	 9.74900e-03 	 1.07140e-02 	 5.08100e-03 	 5.38900e-03 	 9.09000e-04 	 7.72000e-04 
3.27586 	 9.01670e-01 	 8.89630e-01 	 1.10900e-02 	 1.21750e-02 	 5.53600e-03 	 5.85100e-03 	 7.69000e-04 	 6.45000e-04 
4.31034 	 9.04550e-01 	 8.93710e-01 	 1.27520e-02 	 1.39810e-02 	 6.03500e-03 	 6.35000e-03 	 6.21000e-04 	 5.11000e-04 
5.34483 	 9.08120e-01 	 8.98710e-01 	 1.47330e-02 	 1.61220e-02 	 6.54400e-03 	 6.84800e-03 	 4.76000e-04 	 3.82000e-04 
6.37931 	 9.12480e-01 	 9.05080e-01 	 1.75530e-02 	 1.91520e-02 	 7.11800e-03 	 7.38800e-03 	 3.14000e-04 	 2.38000e-04 
7.41379 	 9.19700e-01 	 9.15360e-01 	 2.19000e-02 	 2.37850e-02 	 7.67800e-03 	 7.86000e-03 	 1.32000e-04 	 7.40000e-05 
8.44828 	 9.41660e-01 	 9.39820e-01 	 2.97290e-02 	 3.19470e-02 	 7.71500e-03 	 7.80600e-03 	 0.00000e+00 	 -4.00000e-06 
9.48276 	 9.62680e-01 	 9.60260e-01 	 3.83490e-02 	 4.07510e-02 	 7.80500e-03 	 7.94400e-03 	 -8.00000e-06 	 -8.00000e-06 
10.51724 	 9.83690e-01 	 9.81090e-01 	 4.97910e-02 	 5.23830e-02 	 8.10100e-03 	 8.27900e-03 	 -8.00000e-06 	 -8.00000e-06 
11.55172 	 1.00054e+00 	 9.97910e-01 	 6.10660e-02 	 6.38370e-02 	 8.48900e-03 	 8.69900e-03 	 -8.00000e-06 	 -7.00000e-06 
12.58621 	 1.01567e+00 	 1.01310e+00 	 7.35700e-02 	 7.65420e-02 	 8.98800e-03 	 9.22400e-03 	 -7.00000e-06 	 -7.00000e-06 
13.62069 	 1.03086e+00 	 1.02841e+00 	 8.85290e-02 	 9.17380e-02 	 9.62200e-03 	 9.88300e-03 	 -7.00000e-06 	 -6.00000e-06 
14.65517 	 1.04762e+00 	 1.04532e+00 	 1.07136e-01 	 1.10614e-01 	 1.04440e-02 	 1.07310e-02 	 -6.00000e-06 	 -6.00000e-06 
15.68966 	 1.06074e+00 	 1.05858e+00 	 1.24783e-01 	 1.28525e-01 	 1.11770e-02 	 1.14800e-02 	 -6.00000e-06 	 -5.00000e-06 
16.72414 	 1.07099e+00 	 1.06895e+00 	 1.41156e-01 	 1.45138e-01 	 1.18890e-02 	 1.22070e-02 	 -5.00000e-06 	 -5.00000e-06 
17.75862 	 1.08205e+00 	 1.08013e+00 	 1.60475e-01 	 1.64720e-01 	 1.27580e-02 	 1.30910e-02 	 -5.00000e-06 	 -5.00000e-06 
18.79310 	 1.09377e+00 	 1.09200e+00 	 1.83158e-01 	 1.87696e-01 	 1.36730e-02 	 1.40170e-02 	 -5.00000e-06 	 -5.00000e-06 
19.82759 	 1.10335e+00 	 1.10170e+00 	 2.04542e-01 	 2.09347e-01 	 1.46010e-02 	 1.49550e-02 	 -4.00000e-06 	 -4.00000e-06 
20.86207 	 1.11536e+00 	 1.11383e+00 	 2.30526e-01 	 2.35619e-01 	 1.56800e-02 	 1.60440e-02 	 -4.00000e-06 	 -4.00000e-06 
21.89655 	 1.12913e+00 	 1.12772e+00 	 2.59607e-01 	 2.64988e-01 	 1.68930e-02 	 1.72640e-02 	 -4.00000e-06 	 -4.00000e-06 
22.93103 	 1.14924e+00 	 1.14795e+00 	 2.96885e-01 	 3.02570e-01 	 1.83000e-02 	 1.86760e-02 	 -4.00000e-06 	 -4.00000e-06 
23.96552 	 1.16870e+00 	 1.16751e+00 	 3.30233e-01 	 3.36159e-01 	 1.94270e-02 	 1.98070e-02 	 -3.00000e-06 	 -3.00000e-06 
25.00000 	 1.18601e+00 	 1.18488e+00 	 3.58891e-01 	 3.65009e-01 	 2.03120e-02 	 2.06960e-02 	 -3.00000e-06 	 -3.00000e-06 
5.00 	   -  Re
aoa 	 	 Ue_Vinf_SS 	 Ue_Vinf_PS 	  Dstar_SS 	 	  Dstar_PS 	 	  Theta_SS 	 	  Theta_PS 	 	    Cf_SS 	 	    Cf_PS
(deg) 	 	 	 (-) 	 	 	 (-) 	 	 	 (-) 	 	 	 (-) 	 	 	 (-) 	 	 	 (-) 	 	 	 (-) 	 	 	 (-)
-5.00000 	 8.87380e-01 	 8.72520e-01 	 3.16200e-03 	 3.42800e-03 	 2.09500e-03 	 2.23600e-03 	 1.51100e-03 	 1.38500e-03 
-3.96552 	 8.92440e-01 	 8.77800e-01 	 3.46600e-03 	 3.75200e-03 	 2.27500e-03 	 2.42400e-03 	 1.45900e-03 	 1.33700e-03 
-2.93103 	 8.96200e-01 	 8.81450e-01 	 3.82600e-03 	 4.14500e-03 	 2.48100e-03 	 2.64300e-03 	 1.39400e-03 	 1.27300e-03 
-1.89655 	 8.98990e-01 	 8.84090e-01 	 4.33800e-03 	 4.70900e-03 	 2.76600e-03 	 2.94800e-03 	 1.30400e-03 	 1.18400e-03 
-0.86207 	 9.01620e-01 	 8.86600e-01 	 4.82800e-03 	 5.25100e-03 	 3.02600e-03 	 3.22500e-03 	 1.22300e-03 	 1.10300e-03 
0.17241 	 9.04540e-01 	 8.89480e-01 	 5.24700e-03 	 5.71600e-03 	 3.23800e-03 	 3.45100e-03 	 1.15700e-03 	 1.03900e-03 
1.20690 	 9.06730e-01 	 8.91770e-01 	 5.92200e-03 	 6.46200e-03 	 3.57000e-03 	 3.80300e-03 	 1.06100e-03 	 9.45000e-04 
2.24138 	 9.08130e-01 	 8.93370e-01 	 6.74500e-03 	 7.37500e-03 	 3.95100e-03 	 4.20700e-03 	 9.53000e-04 	 8.40000e-04 
3.27586 	 9.09100e-01 	 8.94650e-01 	 7.64800e-03 	 8.38100e-03 	 4.33800e-03 	 4.61600e-03 	 8.46000e-04 	 7.37000e-04 
4.31034 	 9.10840e-01 	 8.97370e-01 	 9.16600e-03 	 1.00470e-02 	 4.95000e-03 	 5.25000e-03 	 7.01000e-04 	 6.02000e-04 
5.34483 	 9.12020e-01 	 8.99430e-01 	 1.05280e-02 	 1.15510e-02 	 5.42500e-03 	 5.73800e-03 	 5.85000e-04 	 4.94000e-04 
6.37931 	 9.12540e-01 	 9.00780e-01 	 1.17640e-02 	 1.29240e-02 	 5.79300e-03 	 6.11100e-03 	 4.89000e-04 	 4.04000e-04 
7.41379 	 9.13330e-01 	 9.02770e-01 	 1.33270e-02 	 1.46480e-02 	 6.20100e-03 	 6.51400e-03 	 3.87000e-04 	 3.10000e-04 
8.44828 	 9.14950e-01 	 9.06120e-01 	 1.54490e-02 	 1.69740e-02 	 6.66000e-03 	 6.95100e-03 	 2.75000e-04 	 2.09000e-04 
9.48276 	 9.17590e-01 	 9.11240e-01 	 1.83210e-02 	 2.00950e-02 	 7.10400e-03 	 7.33900e-03 	 1.58000e-04 	 1.04000e-04 
10.51724 	 9.22000e-01 	 9.22920e-01 	 2.23690e-02 	 2.44070e-02 	 7.34000e-03 	 7.30200e-03 	 2.80000e-05 	 2.00000e-06 
11.55172 	 9.41590e-01 	 9.40020e-01 	 2.74490e-02 	 2.97220e-02 	 7.04400e-03 	 7.11600e-03 	 0.00000e+00 	 -1.00000e-06 
12.58621 	 9.58180e-01 	 9.55870e-01 	 3.43320e-02 	 3.67860e-02 	 7.01600e-03 	 7.13600e-03 	 -2.00000e-06 	 -2.00000e-06 
13.62069 	 9.75510e-01 	 9.72940e-01 	 4.34920e-02 	 4.61270e-02 	 7.18000e-03 	 7.33600e-03 	 -2.00000e-06 	 -2.00000e-06 
14.65517 	 9.89700e-01 	 9.87020e-01 	 5.29390e-02 	 5.57480e-02 	 7.43300e-03 	 7.62200e-03 	 -2.00000e-06 	 -2.00000e-06 
15.68966 	 1.00303e+00 	 1.00032e+00 	 6.37500e-02 	 6.67500e-02 	 7.81800e-03 	 8.03700e-03 	 -2.00000e-06 	 -2.00000e-06 
16.72414 	 1.02873e+00 	 1.02616e+00 	 8.74040e-02 	 9.07460e-02 	 8.95500e-03 	 9.22300e-03 	 -1.00000e-06 	 -1.00000e-06 
17.75862 	 1.05009e+00 	 1.04772e+00 	 1.12760e-01 	 1.16455e-01 	 1.02690e-02 	 1.05750e-02 	 -1.00000e-06 	 -1.00000e-06 
18.79310 	 1.06829e+00 	 1.06615e+00 	 1.39756e-01 	 1.43818e-01 	 1.16540e-02 	 1.19850e-02 	 -1.00000e-06 	 -1.00000e-06 
19.82759 	 1.08554e+00 	 1.08363e+00 	 1.70257e-01 	 1.74705e-01 	 1.32000e-02 	 1.35500e-02 	 -1.00000e-06 	 -1.00000e-06 
20.86207 	 1.10187e+00 	 1.10018e+00 	 2.03055e-01 	 2.07886e-01 	 1.47070e-02 	 1.50690e-02 	 -1.00000e-06 	 -1.00000e-06 
21.89655 	 1.11612e+00 	 1.11459e+00 	 2.34061e-01 	 2.39232e-01 	 1.59960e-02 	 1.63640e-02 	 -1.00000e-06 	 -1.00000e-06 
22.93103 	 1.13082e+00 	 1.12942e+00 	 2.64857e-01 	 2.70332e-01 	 1.71250e-02 	 1.74990e-02 	 -1.00000e-06 	 -1.00000e-06 
23.96552 	 1.14860e+00 	 1.14732e+00 	 2.98930e-01 	 3.04692e-01 	 1.83800e-02 	 1.87580e-02 	 -1.00000e-06 	 -1.00000e-06 
25.00000 	 1.16310e+00 	 1.16189e+00 	 3.25821e-01 	 3.31798e-01 	 1.92380e-02 	 1.96190e-02 	 -1.00000e-06 	 -1.00000e-06 
10.00 	   -  Re
aoa 	 	 Ue_Vinf_SS 	 Ue_Vinf_PS 	  Dstar_SS 	 	  Dstar_PS 	 	  Theta_SS 	 	  Theta_PS 	 	    Cf_SS 	 	    Cf_PS
(deg) 	 	 	 (-) 	 	 	 (-) 	 	 	 (-) 	 	 	 (-) 	 	 	 (-) 	 	 	 (-) 	 	 	 (-) 	 	 	 (-)
-5.00000 	 8.93720e-01 	 8.80770e-01 	 2.87900e-03 	 3.08000e-03 	 1.95600e-03 	 2.07000e-03 	 1.41500e-03 	 1.32200e-03 
-3.96552 	 8.97170e-01 	 8.83760e-01 	 3.22400e-03 	 3.45700e-03 	 2.16600e-03 	 2.29400e-03 	 1.35100e-03 	 1.25600e-03 
-2.93103 	 9.00190e-01 	 8.86340e-01 	 3.62200e-03 	 3.89600e-03 	 2.40100e-03 	 2.54600e-03 	 1.28100e-03 	 1.18300e-03 
-1.89655 	 9.03380e-01 	 8.89200e-01 	 3.95200e-03 	 4.26000e-03 	 2.58700e-03 	 2.74600e-03 	 1.22600e-03 	 1.12700e-03 
-0.86207 	 9.06200e-01 	 8.91770e-01 	 4.41500e-03 	 4.77000e-03 	 2.84200e-03 	 3.01900e-03 	 1.15300e-03 	 1.05400e-03 
0.17241 	 9.07950e-01 	 8.93180e-01 	 4.90200e-03 	 5.31400e-03 	 3.09900e-03 	 3.29600e-03 	 1.07800e-03 	 9.78000e-04 
1.20690 	 9.09230e-01 	 8.94130e-01 	 5.34500e-03 	 5.81700e-03 	 3.31900e-03 	 3.53500e-03 	 1.01100e-03 	 9.09000e-04 
2.24138 	 9.10630e-01 	 8.95870e-01 	 6.44500e-03 	 7.02800e-03 	 3.85900e-03 	 4.10600e-03 	 8.81000e-04 	 7.83000e-04 
3.27586 	 9.11910e-01 	 8.97360e-01 	 7.26900e-03 	 7.94500e-03 	 4.22400e-03 	 4.49200e-03 	 7.90000e-04 	 6.95000e-04 
4.31034 	 9.12480e-01 	 8.98150e-01 	 8.04200e-03 	 8.81400e-03 	 4.53800e-03 	 4.82400e-03 	 7.09000e-04 	 6.16000e-04 
5.34483 	 9.12630e-01 	 8.98720e-01 	 8.98300e-03 	 9.86900e-03 	 4.89200e-03 	 5.19600e-03 	 6.21000e-04 	 5.31000e-04 
6.37931 	 9.12790e-01 	 8.99440e-01 	 9.94700e-03 	 1.09520e-02 	 5.22000e-03 	 5.53600e-03 	 5.39000e-04 	 4.53000e-04 
7.41379 	 9.12840e-01 	 9.00200e-01 	 1.09700e-02 	 1.20990e-02 	 5.53100e-03 	 5.85400e-03 	 4.61000e-04 	 3.80000e-04 
8.44828 	 9.12620e-01 	 9.01040e-01 	 1.22930e-02 	 1.35750e-02 	 5.89000e-03 	 6.21300e-03 	 3.74000e-04 	 3.00000e-04 
9.48276 	 9.12860e-01 	 9.03000e-01 	 1.42640e-02 	 1.57560e-02 	 6.35100e-03 	 6.65700e-03 	 2.71000e-04 	 2.07000e-04 
10.51724 	 9.14350e-01 	 9.06880e-01 	 1.67940e-02 	 1.85270e-02 	 6.79300e-03 	 7.05300e-03 	 1.68000e-04 	 1.14000e-04 
11.55172 	 9.17860e-01 	 9.14060e-01 	 2.01820e-02 	 2.21910e-02 	 7.12500e-03 	 7.27300e-03 	 6.40000e-05 	 1.10000e-05 
12.58621 	 9.34880e-01 	 9.33870e-01 	 2.53770e-02 	 2.76480e-02 	 6.83600e-03 	 6.87900e-03 	 0.00000e+00 	 0.00000e+00 
13.62069 	 9.65000e-01 	 9.62620e-01 	 3.76180e-02 	 4.01720e-02 	 6.92300e-03 	 7.05300e-03 	 -1.00000e-06 	 -1.00000e-06 
14.65517 	 9.88160e-01 	 9.85530e-01 	 5.12700e-02 	 5.40550e-02 	 7.29000e-03 	 7.47000e-03 	 -1.00000e-06 	 -1.00000e-06 
15.68966 	 1.00751e+00 	 1.00485e+00 	 6.61550e-02 	 6.91790e-02 	 7.86500e-03 	 8.08600e-03 	 -1.00000e-06 	 -1.00000e-06 
16.72414 	 1.02821e+00 	 1.02563e+00 	 8.57680e-02 	 8.90820e-02 	 8.77700e-03 	 9.04100e-03 	 -1.00000e-06 	 -1.00000e-06 
17.75862 	 1.04668e+00 	 1.04427e+00 	 1.07702e-01 	 1.11336e-01 	 9.87200e-03 	 1.01710e-02 	 -1.00000e-06 	 -1.00000e-06 
18.79310 	 1.06132e+00 	 1.05909e+00 	 1.29110e-01 	 1.33052e-01 	 1.09670e-02 	 1.12900e-02 	 -1.00000e-06 	 -1.00000e-06 
19.82759 	 1.08141e+00 	 1.07944e+00 	 1.62311e-01 	 1.66673e-01 	 1.27010e-02 	 1.30470e-02 	 0.00000e+00 	 0.00000e+00 
20.86207 	 1.09699e+00 	 1.09523e+00 	 1.93310e-01 	 1.98048e-01 	 1.41540e-02 	 1.45140e-02 	 0.00000e+00 	 0.00000e+00 
21.89655 	 1.11253e+00 	 1.11096e+00 	 2.26616e-01 	 2.31723e-01 	 1.55980e-02 	 1.59660e-02 	 0.00000e+00 	 0.00000e+00 
22.93103 	 1.12704e+00 	 1.12561e+00 	 2.57808e-01 	 2.63230e-01 	 1.68480e-02 	 1.72210e-02 	 0.00000e+00 	 0.00000e+00 
23.96552 	 1.14492e+00 	 1.14362e+00 	 2.92797e-01 	 2.98521e-01 	 1.81590e-02 	 1.85360e-02 	 0.00000e+00 	 0.00000e+00 
25.00000 	 1.16049e+00 	 1.15928e+00 	 3.21605e-01 	 3.27559e-01 	 1.90870e-02 	 1.94680e-02 	 0.00000e+00 	 0.00000e+00 
